2q (degree),Normalized Intensity (a.u)
12.6904,0
12.6954,0.05338
12.7004,0.05983
12.7054,0.03523
12.7104,0.01272
12.7154,0.01433
12.7204,0
12.7254,0.00815
12.7304,0.00922
12.7354,0.02511
12.7404,0.0176
12.7454,0.02726
12.7504,0.02681
12.7554,0.03165
12.7604,0.0232
12.7654,0.0433
12.7704,0.04056
12.7754,0.04179
12.7804,0
12.7854,0.01291
12.7904,0.00953
12.7954,0.01188
12.8004,0.00522
12.8054,0.0164
12.8104,0.00994
12.8154,0
12.8204,0.00259
12.8254,0.04635
12.8304,0.0417
12.8354,0.03871
12.8404,0.04429
12.8454,0.05211
12.8504,0.05526
12.8554,0.05659
12.8604,0.05903
12.8654,0.04935
12.8704,0.04642
12.8754,0.04577
12.8804,0.03466
12.8854,0.03405
12.8904,0.03225
12.8954,0.029
12.9004,0.0298
12.9054,0.03888
12.9104,0.04097
12.9154,0.04492
12.9204,0.04579
12.9254,0.05825
12.9304,0.05348
12.9354,0.0517
12.9404,0.05406
12.9454,0.05518
12.9504,0.05062
12.9554,0.06245
12.9604,0.07136
12.9654,0.07096
12.9704,0.06735
12.9754,0.06425
12.9804,0.04253
12.9854,0.04376
12.9904,0.04264
12.9954,0.03795
13.0004,0.03344
13.0054,0.02561
13.0104,0.02378
13.0154,0.02994
13.0204,0.0364
13.0254,0.06188
13.0304,0.05999
13.0354,0.06026
13.0404,0.0577
13.0454,0.05074
13.0504,0.04511
13.0554,0.04655
13.0604,0.04313
13.0654,0.04008
13.0704,0.03554
13.0754,0.03098
13.0804,0.01858
13.0854,0.02091
13.0904,0.02213
13.0954,0.02712
13.1004,0.02769
13.1054,0.03159
13.1104,0.03161
13.1154,0.03176
13.1204,0.03773
13.1254,0.04883
13.1304,0.04532
13.1354,0.04319
13.1404,0.0382
13.1454,0.03748
13.1504,0.0307
13.1554,0.02613
13.1604,0.02284
13.1654,0.0177
13.1704,0.01924
13.1754,0.01906
13.1804,0.00694
13.1854,0.00922
13.1904,0.00648
13.1954,0.00909
13.2004,0.01151
13.2054,0.01246
13.2104,0.01268
13.2154,0.0119
13.2204,0.0174
13.2254,0.03174
13.2304,0.03547
13.2354,0.03799
13.2404,0.04
13.2454,0.04667
13.2504,0.04589
13.2554,0.04975
13.2604,0.05045
13.2654,0.04684
13.2704,0.04949
13.2754,0.04365
13.2804,0.03787
13.2854,0.03444
13.2904,0.03374
13.2954,0.03834
13.3004,0.03437
13.3054,0.02748
13.3104,0.02325
13.3154,0.02052
13.3204,0.02448
13.3254,0.03111
13.3304,0.02961
13.3354,0.02423
13.3404,0.02558
13.3454,0.02748
13.3504,0.03055
13.3554,0.03373
13.3604,0.03117
13.3654,0.02587
13.3704,0.02695
13.3754,0.02715
13.3804,0.01806
13.3854,0.01476
13.3904,0.0161
13.3954,0.02439
13.4004,0.02844
13.4054,0.02515
13.4104,0.02064
13.4154,0.01592
13.4204,0.01657
13.4254,0.02601
13.4304,0.02657
13.4354,0.02348
13.4404,0.01576
13.4454,0.01271
13.4504,0.01842
13.4554,0.02482
13.4604,0.02559
13.4654,0.02498
13.4704,0.02772
13.4754,0.0268
13.4804,0.02143
13.4854,0.02338
13.4904,0.02288
13.4954,0.02191
13.5004,0.02281
13.5054,0.0222
13.5104,0.01881
13.5154,0.01668
13.5204,0.01683
13.5254,0.02245
13.5304,0.02422
13.5354,0.02718
13.5404,0.03
13.5454,0.02927
13.5504,0.02842
13.5554,0.03342
13.5604,0.02947
13.5654,0.02567
13.5704,0.02329
13.5754,0.02047
13.5804,0.0137
13.5854,0.01438
13.5904,0.01583
13.5954,0.02105
13.6004,0.01829
13.6054,0.01444
13.6104,0.01217
13.6154,0.01494
13.6204,0.01845
13.6254,0.02474
13.6304,0.0204
13.6354,0.02041
13.6404,0.01855
13.6454,0.02071
13.6504,0.02585
13.6554,0.02929
13.6604,0.031
13.6654,0.02845
13.6704,0.0274
13.6754,0.02726
13.6804,0.02162
13.6854,0.0194
13.6904,0.01849
13.6954,0.02141
13.7004,0.0227
13.7054,0.01629
13.7104,0.01215
13.7154,0.01123
13.7204,0.01171
13.7254,0.01763
13.7304,0.02232
13.7354,0.02099
13.7404,0.01986
13.7454,0.02072
13.7504,0.02561
13.7554,0.03109
13.7604,0.03062
13.7654,0.02787
13.7704,0.02471
13.7754,0.02459
13.7804,0.02541
13.7854,0.02474
13.7904,0.0231
13.7954,0.0217
13.8004,0.01929
13.8054,0.01355
13.8104,0.0153
13.8154,0.01717
13.8204,0.01544
13.8254,0.01502
13.8304,0.01294
13.8354,0.01392
13.8404,0.01491
13.8454,0.01538
13.8504,0.0206
13.8554,0.02147
13.8604,0.01813
13.8654,0.01744
13.8704,0.0195
13.8754,0.02162
13.8804,0.0191
13.8854,0.01967
13.8904,0.01814
13.8954,0.02029
13.9004,0.02101
13.9054,0.02033
13.9104,0.01811
13.9154,0.01731
13.9204,0.01618
13.9254,0.02101
13.9304,0.02034
13.9354,0.02017
13.9404,0.01738
13.9454,0.01827
13.9504,0.0211
13.9554,0.02099
13.9604,0.02002
13.9654,0.02222
13.9704,0.02032
13.9754,0.01761
13.9804,0.01628
13.9854,0.01571
13.9904,0.01196
13.9954,0.01188
14.0004,0.01307
14.0054,0.00935
14.0104,0.00412
14.0154,0.0025
14.0204,0.00429
14.0254,0.0083
14.0304,0.01284
14.0354,0.01332
14.0404,0.01149
14.0454,0.01276
14.0504,0.01557
14.0554,0.02066
14.0604,0.02274
14.0654,0.01972
14.0704,0.01924
14.0754,0.0144
14.0804,0.00867
14.0854,0.00818
14.0904,0.00503
14.0954,0.00931
14.1004,0.005
14.1054,0.00151
14.1104,0.00309
14.1154,0.00332
14.1204,0.00541
14.1254,0.01336
14.1304,0.01464
14.1354,0.01515
14.1404,0.01143
14.1454,0.01337
14.1504,0.01678
14.1554,0.01829
14.1604,0.01724
14.1654,0.0146
14.1704,0.01272
14.1754,0.01682
14.1804,0.0178
14.1854,0.01765
14.1904,0.01596
14.1954,0.0136
14.2004,0.01501
14.2054,0.01459
14.2104,0.01084
14.2154,0.0106
14.2204,0.0065
14.2254,0.0019
14.2304,0.00137
14.2354,0.00437
14.2404,0.0066
14.2454,0.00473
14.2504,0.00421
14.2554,0.00966
14.2604,0.01133
14.2654,0.01156
14.2704,0.01784
14.2754,0.01777
14.2804,0.01271
14.2854,0.01426
14.2904,0.01561
14.2954,0.01673
14.3004,0.0178
14.3054,0.01363
14.3104,0.01094
14.3154,0.01059
14.3204,0.01215
14.3254,0.01594
14.3304,0.014
14.3354,0.01124
14.3404,0.00832
14.3454,0.00591
14.3504,0.01178
14.3554,0.01409
14.3604,0.0121
14.3654,0.00853
14.3704,0.00736
14.3754,0.00539
14.3804,0.00721
14.3854,0.01056
14.3904,0.01153
14.3954,0.00978
14.4004,0.01068
14.4054,0.00821
14.4104,0.00735
14.4154,0.00869
14.4204,0.01308
14.4254,0.01245
14.4304,0.01078
14.4354,0.01049
14.4404,0.01108
14.4454,0.01377
14.4504,0.01674
14.4554,0.02121
14.4604,0.01886
14.4654,0.0149
14.4704,0.0147
14.4754,0.01699
14.4804,0.01667
14.4854,0.01659
14.4904,0.01434
14.4954,0.01342
14.5004,0.01173
14.5054,0.011
14.5104,0.01295
14.5154,0.01206
14.5204,0.00977
14.5254,0.0084
14.5304,0.00519
14.5354,0.00533
14.5404,0.00607
14.5454,0.00562
14.5504,0.00812
14.5554,0.00893
14.5604,0.01048
14.5654,0.01116
14.5704,0.01298
14.5754,0.01327
14.5804,0.0101
14.5854,0.00977
14.5904,0.01266
14.5954,0.01374
14.6004,0.01208
14.6054,0.01058
14.6104,0.00995
14.6154,0.01148
14.6204,0.01313
14.6254,0.01876
14.6304,0.02009
14.6354,0.01693
14.6404,0.01451
14.6454,0.01295
14.6504,0.01071
14.6554,0.01035
14.6604,0.0075
14.6654,0.00568
14.6704,0.00382
14.6754,0.00281
14.6804,0.00157
14.6854,0.00369
14.6904,0.00427
14.6954,0.009
14.7004,0.01017
14.7054,0.00862
14.7104,0.00822
14.7154,0.00641
14.7204,0.00615
14.7254,0.00784
14.7304,0.00888
14.7354,0.00892
14.7404,0.00597
14.7454,0.00502
14.7504,0.01024
14.7554,0.01238
14.7604,0.01066
14.7654,0.01084
14.7704,0.0117
14.7754,0.01015
14.7804,0.00934
14.7854,0.01098
14.7904,0.01338
14.7954,0.01179
14.8004,0.01377
14.8054,0.01742
14.8104,0.01509
14.8154,0.01379
14.8204,0.01427
14.8254,0.01482
14.8304,0.01313
14.8354,0.01086
14.8404,0.01103
14.8454,0.01
14.8504,0.00986
14.8554,0.01522
14.8604,0.01751
14.8654,0.0167
14.8704,0.01692
14.8754,0.01892
14.8804,0.01724
14.8854,0.01561
14.8904,0.01545
14.8954,0.01567
14.9004,0.01538
14.9054,0.0133
14.9104,0.01327
14.9154,0.01578
14.9204,0.01647
14.9254,0.02049
14.9304,0.02143
14.9354,0.02042
14.9404,0.01939
14.9454,0.01973
14.9504,0.02058
14.9554,0.02053
14.9604,0.01577
14.9654,0.01282
14.9704,0.00919
14.9754,0.00709
14.9804,0.004
14.9854,0.00423
14.9904,5.60E-04
14.9954,0
15.0004,0.00203
15.0054,0.00379
15.0104,0.00415
15.0154,0.00591
15.0204,0.00652
15.0254,0.00889
15.0304,0.00714
15.0354,0.00664
15.0404,0.00644
15.0454,0.0052
15.0504,0.00636
15.0554,0.00845
15.0604,0.00632
15.0654,0.00595
15.0704,0.00772
15.0754,0.00947
15.0804,0.01108
15.0854,0.01296
15.0904,0.01182
15.0954,0.01047
15.1004,0.00969
15.1054,0.01139
15.1104,0.00995
15.1154,0.00996
15.1204,0.01025
15.1254,0.01055
15.1304,0.01109
15.1354,0.01224
15.1404,0.01153
15.1454,0.00985
15.1504,0.00766
15.1554,0.01001
15.1604,0.0075
15.1654,0.00466
15.1704,0.00451
15.1754,0.00288
15.1804,0
15.1854,0.00288
15.1904,0.00388
15.1954,0.00535
15.2004,0.00652
15.2054,0.00809
15.2104,0.0082
15.2154,0.00743
15.2204,0.00772
15.2254,0.00862
15.2304,0.00726
15.2354,0.00948
15.2404,0.01006
15.2454,0.00888
15.2504,0.00939
15.2554,0.01161
15.2604,0.01127
15.2654,0.01043
15.2704,0.01295
15.2754,0.01509
15.2804,0.01408
15.2854,0.01439
15.2904,0.01467
15.2954,0.01314
15.3004,0.01178
15.3054,0.01131
15.3104,0.01066
15.3154,0.00901
15.3204,0.00587
15.3254,0.00412
15.3304,0.00358
15.3354,0.00303
15.3404,0.00525
15.3454,0.00976
15.3504,0.01312
15.3554,0.01593
15.3604,0.01484
15.3654,0.01661
15.3704,0.01758
15.3754,0.01733
15.3804,0.01734
15.3854,0.01738
15.3904,0.0138
15.3954,0.01233
15.4004,0.01077
15.4054,0.00957
15.4104,0.00725
15.4154,0.00888
15.4204,0.0071
15.4254,0.00679
15.4304,0.0065
15.4354,0.00643
15.4404,0.00634
15.4454,0.00548
15.4504,0.00754
15.4554,0.00835
15.4604,0.00572
15.4654,0.00716
15.4704,0.0077
15.4754,0.00701
15.4804,0.00706
15.4854,0.00668
15.4904,0.00874
15.4954,0.00984
15.5004,0.01081
15.5054,0.00971
15.5104,0.00973
15.5154,0.01068
15.5204,0.01153
15.5254,0.00883
15.5304,0.00863
15.5354,0.00726
15.5404,0.006
15.5454,0.00536
15.5504,0.00729
15.5554,0.00837
15.5604,0.00574
15.5654,0.00256
15.5704,0.0066
15.5754,0.00849
15.5804,0.00597
15.5854,0.00635
15.5904,0.00819
15.5954,0.00842
15.6004,0.00692
15.6054,0.00836
15.6104,0.009
15.6154,0.00855
15.6204,0.00554
15.6254,0.00762
15.6304,0.00802
15.6354,0.00641
15.6404,0.00693
15.6454,0.00771
15.6504,0.00789
15.6554,0.0122
15.6604,0.01005
15.6654,0.01046
15.6704,0.01065
15.6754,0.01023
15.6804,0.01001
15.6854,0.00789
15.6904,0.00854
15.6954,0.00936
15.7004,0.00658
15.7054,0.00771
15.7104,0.00643
15.7154,0.00486
15.7204,0.00396
15.7254,0.00428
15.7304,0.00715
15.7354,0.0074
15.7404,0.00738
15.7454,0.00617
15.7504,0.00735
15.7554,0.00913
15.7604,0.00915
15.7654,0.0095
15.7704,0.01101
15.7754,0.01087
15.7804,0.00933
15.7854,0.00935
15.7904,0.01073
15.7954,0.01067
15.8004,0.01091
15.8054,0.01198
15.8104,0.01055
15.8154,0.0079
15.8204,0.00816
15.8254,0.01
15.8304,0.00897
15.8354,0.00885
15.8404,0.00662
15.8454,0.00628
15.8504,0.00689
15.8554,0.00755
15.8604,0.00763
15.8654,0.00567
15.8704,0.00635
15.8754,0.01015
15.8804,0.00853
15.8854,0.01017
15.8904,0.01087
15.8954,0.01232
15.9004,0.01495
15.9054,0.01629
15.9104,0.01626
15.9154,0.0151
15.9204,0.01316
15.9254,0.01559
15.9304,0.01611
15.9354,0.01353
15.9404,0.01242
15.9454,0.01245
15.9504,0.01443
15.9554,0.01697
15.9604,0.01664
15.9654,0.01455
15.9704,0.01367
15.9754,0.01274
15.9804,0.01133
15.9854,0.01195
15.9904,0.01126
15.9954,0.01016
16.0004,0.0085
16.0054,0.00689
16.0104,0.00664
16.0154,0.00699
16.0204,0.0088
16.0254,0.01144
16.0304,0.00936
16.0354,0.00889
16.0404,0.00799
16.0454,0.00746
16.0504,0.00806
16.0554,0.00919
16.0604,0.00747
16.0654,0.00494
16.0704,0.0048
16.0754,0.00565
16.0804,0.00566
16.0854,0.00648
16.0904,0.00845
16.0954,0.00969
16.1004,0.0092
16.1054,0.00933
16.1104,0.00807
16.1154,0.01004
16.1204,0.00953
16.1254,0.00804
16.1304,0.00535
16.1354,0.0024
16.1404,0
16.1454,2.93E-04
16.1504,0.00251
16.1554,0.00666
16.1604,0.00436
16.1654,0.00456
16.1704,0.0059
16.1754,0.00867
16.1804,0.0107
16.1854,0.01186
16.1904,0.01117
16.1954,0.00885
16.2004,0.00563
16.2054,0.00535
16.2104,0.00483
16.2154,0.00458
16.2204,0.00284
16.2254,0.0022
16.2304,0.00271
16.2354,0.00459
16.2404,0.00648
16.2454,0.0077
16.2504,0.01131
16.2554,0.01242
16.2604,0.01043
16.2654,0.00976
16.2704,0.01016
16.2754,0.01195
16.2804,0.01129
16.2854,0.01186
16.2904,0.01182
16.2954,0.00974
16.3004,0.0087
16.3054,0.01133
16.3104,0.01146
16.3154,0.01087
16.3204,0.00864
16.3254,0.00865
16.3304,0.00606
16.3354,0.00437
16.3404,0.0037
16.3454,0.00341
16.3504,0.00211
16.3554,0.00256
16.3604,0.00252
16.3654,0.00216
16.3704,0.00199
16.3754,0.00366
16.3804,0.00587
16.3854,0.0067
16.3904,0.00776
16.3954,0.00943
16.4004,0.01094
16.4054,0.01021
16.4104,0.01277
16.4154,0.01296
16.4204,0.01155
16.4254,0.00969
16.4304,0.00776
16.4354,0.00624
16.4404,0.00432
16.4454,0.00371
16.4504,0.00474
16.4554,0.00396
16.4604,0.00235
16.4654,0.00399
16.4704,0.00627
16.4754,0.00831
16.4804,0.00869
16.4854,0.01036
16.4904,0.01027
16.4954,0.0098
16.5004,0.00996
16.5054,0.01229
16.5104,0.01156
16.5154,0.00968
16.5204,0.00759
16.5254,0.00729
16.5304,0.00448
16.5354,0.00444
16.5404,0.00477
16.5454,0.00506
16.5504,0.00381
16.5554,0.00428
16.5604,0.00519
16.5654,0.00469
16.5704,0.00637
16.5754,0.0084
16.5804,0.00657
16.5854,0.00587
16.5904,0.00448
16.5954,0.0055
16.6004,0.00541
16.6054,0.00465
16.6104,0.00461
16.6154,0.00526
16.6204,0.00677
16.6254,0.00829
16.6304,0.00677
16.6354,0.00621
16.6404,0.00537
16.6454,0.00681
16.6504,0.00677
16.6554,0.00802
16.6604,0.00499
16.6654,0.00214
16.6704,0.00295
16.6754,0.00457
16.6804,0.00589
16.6854,0.00588
16.6904,0.00279
16.6954,0.002
16.7004,0.00195
16.7054,0.00399
16.7104,0.00493
16.7154,0.00386
16.7204,0.00278
16.7254,0.00237
16.7304,0.00123
16.7354,0.00181
16.7404,0.00378
16.7454,0.00605
16.7504,0.0072
16.7554,0.0066
16.7604,0.00745
16.7654,0.00826
16.7704,0.0088
16.7754,0.00779
16.7804,0.00755
16.7854,0.00797
16.7904,0.00794
16.7954,0.00592
16.8004,0.00704
16.8054,0.00669
16.8104,0.00633
16.8154,0.00443
16.8204,0.00579
16.8254,0.00767
16.8304,0.00672
16.8354,0.00332
16.8404,0.00323
16.8454,0.00377
16.8504,0.00228
16.8554,0.00227
16.8604,0.00177
16.8654,0.00192
16.8704,9.87E-04
16.8754,8.49E-04
16.8804,0.00419
16.8854,0.00622
16.8904,0.00351
16.8954,0.00436
16.9004,0.00601
16.9054,0.00705
16.9104,0.00724
16.9154,0.00806
16.9204,0.00634
16.9254,0.00584
16.9304,0.00538
16.9354,0.00648
16.9404,0.00829
16.9454,0.00868
16.9504,0.01009
16.9554,0.00901
16.9604,0.00578
16.9654,0.00521
16.9704,0.00264
16.9754,0.00148
16.9804,0.00163
16.9854,0.00113
16.9904,1.87E-04
16.9954,0
17.0004,0.00247
17.0054,0.00452
17.0104,0.00535
17.0154,0.007
17.0204,0.00698
17.0254,0.00732
17.0304,0.00799
17.0354,0.01026
17.0404,0.01136
17.0454,0.01126
17.0504,0.01146
17.0554,0.01375
17.0604,0.01168
17.0654,0.01046
17.0704,0.01148
17.0754,0.00945
17.0804,0.00784
17.0854,0.00628
17.0904,0.0071
17.0954,0.00722
17.1004,0.0072
17.1054,0.0095
17.1104,0.01085
17.1154,0.00945
17.1204,0.00919
17.1254,0.00935
17.1304,0.00885
17.1354,0.00509
17.1404,0.005
17.1454,0.00546
17.1504,0.00655
17.1554,0.00834
17.1604,0.00747
17.1654,0.00637
17.1704,0.00726
17.1754,0.0086
17.1804,0.01069
17.1854,0.01158
17.1904,0.01024
17.1954,0.00729
17.2004,0.00661
17.2054,0.00969
17.2104,0.01065
17.2154,0.00829
17.2204,0.00704
17.2254,0.00665
17.2304,0.00578
17.2354,0.0046
17.2404,0.00687
17.2454,0.00663
17.2504,0.00433
17.2554,0.00578
17.2604,0.00397
17.2654,0.00282
17.2704,0.00358
17.2754,0.00372
17.2804,0.00258
17.2854,0.00223
17.2904,0.00132
17.2954,0.00202
17.3004,5.31E-04
17.3054,0.00268
17.3104,0.00485
17.3154,0.00353
17.3204,0.00213
17.3254,0.00446
17.3304,0.00403
17.3354,0.0041
17.3404,0.00446
17.3454,0.00593
17.3504,0.00567
17.3554,0.00511
17.3604,0.00514
17.3654,0.00583
17.3704,0.00633
17.3754,0.00571
17.3804,0.00622
17.3854,0.00863
17.3904,0.0088
17.3954,0.00794
17.4004,0.00598
17.4054,0.00577
17.4104,0.00434
17.4154,0.00409
17.4204,0.00422
17.4254,0.00325
17.4304,0.00109
17.4354,7.28E-04
17.4404,0.00222
17.4454,0.00498
17.4504,0.00695
17.4554,0.01119
17.4604,0.00984
17.4654,0.00971
17.4704,0.01165
17.4754,0.01153
17.4804,0.01137
17.4854,0.01174
17.4904,0.00967
17.4954,0.00957
17.5004,0.00868
17.5054,0.00908
17.5104,0.00812
17.5154,0.00686
17.5204,0.00775
17.5254,0.00788
17.5304,0.00521
17.5354,0.00535
17.5404,0.00509
17.5454,0.00414
17.5504,0.00565
17.5554,0.00823
17.5604,0.00757
17.5654,0.00583
17.5704,0.0055
17.5754,0.00737
17.5804,0.0075
17.5854,0.00854
17.5904,0.00973
17.5954,0.00934
17.6004,0.00935
17.6054,0.00923
17.6104,0.00953
17.6154,0.01033
17.6204,0.01094
17.6254,0.01093
17.6304,0.00761
17.6354,0.00497
17.6404,0.00461
17.6454,0.00338
17.6504,0.00414
17.6554,0.00538
17.6604,0.00311
17.6654,0.00313
17.6704,0.00518
17.6754,0.00777
17.6804,0.00661
17.6854,0.00649
17.6904,0.00684
17.6954,0.00759
17.7004,0.00787
17.7054,0.0083
17.7104,0.00725
17.7154,0.00648
17.7204,0.00616
17.7254,0.00785
17.7304,0.00771
17.7354,0.00835
17.7404,0.00782
17.7454,0.00678
17.7504,0.00723
17.7554,0.01018
17.7604,0.0098
17.7654,0.00806
17.7704,0.0086
17.7754,0.0088
17.7804,0.0089
17.7854,0.00921
17.7904,0.00929
17.7954,0.00919
17.8004,0.00802
17.8054,0.00731
17.8104,0.00631
17.8154,0.0055
17.8204,0.00496
17.8254,0.00562
17.8304,0.00654
17.8354,0.00731
17.8404,0.00861
17.8454,0.00709
17.8504,0.00721
17.8554,0.01083
17.8604,0.01039
17.8654,0.00976
17.8704,0.00903
17.8754,0.0073
17.8804,0.00409
17.8854,0.00223
17.8904,0.00232
17.8954,0.00376
17.9004,0.00302
17.9054,0.00318
17.9104,0.00159
17.9154,0
17.9204,9.16E-04
17.9254,0.00349
17.9304,0.00529
17.9354,0.00489
17.9404,0.00338
17.9454,0.00134
17.9504,0.00383
17.9554,0.00744
17.9604,0.00661
17.9654,0.00626
17.9704,0.00691
17.9754,0.00701
17.9804,0.00778
17.9854,0.00763
17.9904,0.00982
17.9954,0.00945
18.0004,0.0095
18.0054,0.01294
18.0104,0.0115
18.0154,0.01074
18.0204,0.01126
18.0254,0.01029
18.0304,0.01012
18.0354,0.00903
18.0404,0.00772
18.0454,0.00745
18.0504,0.00568
18.0554,0.00854
18.0604,0.00818
18.0654,0.00623
18.0704,0.00732
18.0754,0.00935
18.0804,0.00944
18.0854,0.00871
18.0904,0.00839
18.0954,0.00888
18.1004,0.00796
18.1054,0.00879
18.1104,0.0107
18.1154,0.01109
18.1204,0.01002
18.1254,0.00996
18.1304,0.00957
18.1354,0.0091
18.1404,0.00814
18.1454,0.00823
18.1504,0.00832
18.1554,0.00713
18.1604,0.00657
18.1654,0.00671
18.1704,0.00877
18.1754,0.0101
18.1804,0.01006
18.1854,0.01054
18.1904,0.01125
18.1954,0.01127
18.2004,0.01196
18.2054,0.01122
18.2104,0.01075
18.2154,0.0101
18.2204,0.01089
18.2254,0.01141
18.2304,0.01073
18.2354,0.01109
18.2404,0.01101
18.2454,0.01132
18.2504,0.01342
18.2554,0.01546
18.2604,0.01424
18.2654,0.01402
18.2704,0.01335
18.2754,0.0132
18.2804,0.0124
18.2854,0.01079
18.2904,0.01023
18.2954,0.00972
18.3004,0.00968
18.3054,0.01
18.3104,0.01048
18.3154,0.01086
18.3204,0.01126
18.3254,0.01029
18.3304,0.01321
18.3354,0.0128
18.3404,0.01112
18.3454,0.01052
18.3504,0.01091
18.3554,0.01077
18.3604,0.01022
18.3654,0.01115
18.3704,0.01107
18.3754,0.01021
18.3804,0.00961
18.3854,0.01251
18.3904,0.01214
18.3954,0.01318
18.4004,0.01355
18.4054,0.01372
18.4104,0.01311
18.4154,0.0129
18.4204,0.01169
18.4254,0.01161
18.4304,0.01028
18.4354,0.00937
18.4404,0.00794
18.4454,0.00816
18.4504,0.00951
18.4554,0.01117
18.4604,0.0103
18.4654,0.00935
18.4704,0.01041
18.4754,0.0092
18.4804,0.0101
18.4854,0.01042
18.4904,0.01064
18.4954,0.01059
18.5004,0.00844
18.5054,0.00763
18.5104,0.00715
18.5154,0.00521
18.5204,0.00581
18.5254,0.00472
18.5304,0.00375
18.5354,0.00295
18.5404,0.00217
18.5454,0.00214
18.5504,0.00503
18.5554,0.00783
18.5604,0.00825
18.5654,0.0082
18.5704,0.00922
18.5754,0.01181
18.5804,0.01065
18.5854,0.00962
18.5904,0.0114
18.5954,0.01177
18.6004,0.01279
18.6054,0.01483
18.6104,0.01451
18.6154,0.01404
18.6204,0.01321
18.6254,0.01469
18.6304,0.01599
18.6354,0.01638
18.6404,0.01475
18.6454,0.01323
18.6504,0.01263
18.6554,0.01433
18.6604,0.01429
18.6654,0.01328
18.6704,0.0118
18.6754,0.01214
18.6804,0.01117
18.6854,0.01299
18.6904,0.01388
18.6954,0.01401
18.7004,0.01252
18.7054,0.01177
18.7104,0.01
18.7154,0.01095
18.7204,0.00976
18.7254,0.00839
18.7304,0.00657
18.7354,0.00582
18.7404,0.00764
18.7454,0.00674
18.7504,0.00783
18.7554,0.00888
18.7604,0.00514
18.7654,0.00404
18.7704,0.00585
18.7754,0.00568
18.7804,0.00277
18.7854,6.17E-04
18.7904,0.00186
18.7954,8.29E-04
18.8004,0.00119
18.8054,0.00376
18.8104,0.00317
18.8154,7.46E-04
18.8204,3.56E-04
18.8254,0.00131
18.8304,9.12E-04
18.8354,0
18.8404,4.33E-04
18.8454,4.85E-04
18.8504,0.00123
18.8554,0.00339
18.8604,0.00472
18.8654,0.00495
18.8704,0.00698
18.8754,0.00777
18.8804,0.00914
18.8854,0.01004
18.8904,0.0087
18.8954,0.00808
18.9004,0.00786
18.9054,0.00719
18.9104,0.00742
18.9154,0.00782
18.9204,0.00843
18.9254,0.0088
18.9304,0.00917
18.9354,0.0106
18.9404,0.01076
18.9454,0.01119
18.9504,0.01234
18.9554,0.01273
18.9604,0.00953
18.9654,0.00747
18.9704,0.00751
18.9754,0.0066
18.9804,0.00493
18.9854,0.00351
